TiNbZrCu_9	
2θ, °	Intensity, counts
30	4314.946
30.02	4368
30.04	4329.99
30.06	4326.726
30.08	4288.736
30.1	4296.217
30.12	4371.764
30.14	4349.49
30.16	4273.735
30.18	4186.798
30.2	4273.476
30.22	4342.636
30.24	4249.685
30.26	4255.509
30.28	4222.138
30.3	4268.316
30.32	4335.506
30.34	4265.306
30.36	4356.788
30.38	4224.968
30.4	4160.553
30.42	4205.363
30.44	4215.555
30.46	4275.505
30.48	4253.388
30.5	4082.737
30.52	4199.886
30.54	4182.088
30.56	4302.421
30.58	4115.546
30.6	4142.253
30.62	4152.178
30.64	4126.575
30.66	4237.33
30.68	4160.131
30.7	4224.296
30.72	4229.982
30.74	4190.498
30.76	4291.275
30.78	4215.083
30.8	4220.081
30.82	4128.895
30.84	4093.962
30.86	4101.436
30.88	4042.287
30.9	4087.702
30.92	4127.851
30.94	4122.464
30.96	4156.234
30.98	4210.489
31	4279.955
31.02	4116.149
31.04	4118.531
31.06	4118.206
31.08	4253.438
31.1	4237.869
31.12	4202.318
31.14	4123.001
31.16	4297.112
31.18	4199.688
31.2	4167.276
31.22	4271.723
31.24	4270.904
31.26	4260.167
31.28	4163.889
31.3	4236.501
31.32	4223.568
31.34	4216.417
31.36	4291.197
31.38	4266.853
31.4	4151.259
31.42	4250.039
31.44	4206.976
31.46	4114.978
31.48	4223.833
31.5	4231.665
31.52	4220.711
31.54	4138.409
31.56	4061.825
31.58	4056.257
31.6	3985.531
31.62	4020.169
31.64	4003.433
31.66	4078.013
31.68	3958.025
31.7	3965.568
31.72	4024.955
31.74	3807.672
31.76	3906.485
31.78	3740.457
31.8	3783.628
31.82	3901.97
31.84	3957.099
31.86	3877.143
31.88	3765.641
31.9	3803.878
31.92	3847.604
31.94	3736.63
31.96	3748.1
31.98	3816.565
32	3832.317
32.02	3792.238
32.04	3833.353
32.06	3698.421
32.08	3841.917
32.1	3732.999
32.12	3867.632
32.14	3828.169
32.16	3717.026
32.18	3702.405
32.2	3713.411
32.22	3804.501
32.24	3684.98
32.26	3749.941
32.28	3648.906
32.3	3756.055
32.32	3801.299
32.34	3802.029
32.36	3621.672
32.38	3661.352
32.4	3681.518
32.42	3725.293
32.44	3655.2
32.46	3585.496
32.48	3573.058
32.5	3589.297
32.52	3579.49
32.54	3606.717
32.56	3598.906
32.58	3554.93
32.6	3491.794
32.62	3644.197
32.64	3695.164
32.66	3478.041
32.68	3602.686
32.7	3463.843
32.72	3505.438
32.74	3529.062
32.76	3581.085
32.78	3562.121
32.8	3597.61
32.82	3613.851
32.84	3612.251
32.86	3465.979
32.88	3501.901
32.9	3537.442
32.92	3550.287
32.94	3509.922
32.96	3572.526
32.98	3519.321
33	3691.267
33.02	3510.263
33.04	3485.627
33.06	3443.911
33.08	3419.895
33.1	3496.461
33.12	3416.749
33.14	3379.131
33.16	3412.26
33.18	3458.898
33.2	3444.621
33.22	3491.698
33.24	3365.357
33.26	3398.99
33.28	3452.515
33.3	3434.021
33.32	3454.636
33.34	3402.659
33.36	3456.756
33.38	3462.418
33.4	3402.077
33.42	3254.968
33.44	3459.064
33.46	3490.167
33.48	3282.88
33.5	3358.072
33.52	3363.557
33.54	3481.401
33.56	3371.709
33.58	3506.278
33.6	3363.376
33.62	3399.786
33.64	3342.668
33.66	3351.314
33.68	3331.776
33.7	3444.081
33.72	3286.193
33.74	3291.899
33.76	3272.128
33.78	3237.373
33.8	3212.083
33.82	3351.958
33.84	3358.593
33.86	3237.336
33.88	3262.671
33.9	3241.842
33.92	3255.517
33.94	3334.125
33.96	3273.018
33.98	3238.605
34	3289.57
34.02	3302.178
34.04	3226.251
34.06	3287.499
34.08	3114.456
34.1	3183.718
34.12	3225.113
34.14	3219.143
34.16	3267.271
34.18	3178.673
34.2	3135.269
34.22	3160.475
34.24	3201.359
34.26	3134.549
34.28	3188.774
34.3	3209.245
34.32	3194.275
34.34	3148.001
34.36	3093.513
34.38	3221.63
34.4	3187.864
34.42	3011.731
34.44	3184.931
34.46	3133.748
34.48	3115.676
34.5	3095.325
34.52	3091.025
34.54	3132.09
34.56	3074.171
34.58	3118.65
34.6	3070.568
34.62	3121.649
34.64	3186.549
34.66	3180.133
34.68	3112.028
34.7	3114.132
34.72	3120.334
34.74	3262.608
34.76	3144.578
34.78	3252.531
34.8	3136.533
34.82	3115.628
34.84	3110.226
34.86	3072.337
34.88	3097.433
34.9	3039.615
34.92	3086.404
34.94	3116.222
34.96	3064.061
34.98	3003.188
35	3031.482
35.02	3036.117
35.04	3033.604
35.06	3064.99
35.08	3012.145
35.1	2951.591
35.12	3032.484
35.14	2996.922
35.16	2978.315
35.18	3018.514
35.2	2961.022
35.22	2989.907
35.24	3019.533
35.26	2913.344
35.28	2911.898
35.3	2967.317
35.32	3000.81
35.34	3042.386
35.36	2955.488
35.38	2924.152
35.4	2940.274
35.42	2897.653
35.44	2930.675
35.46	2864.056
35.48	2897.443
35.5	2965.456
35.52	2956.778
35.54	2978.279
35.56	2925.739
35.58	2899.817
35.6	2986.734
35.62	2944.04
35.64	2901.363
35.66	2892.983
35.68	2868.12
35.7	2940.016
35.72	2872.689
35.74	2986.324
35.76	2951.686
35.78	2954.819
35.8	2875.351
35.82	2954.763
35.84	2862.677
35.86	2888.518
35.88	3015.696
35.9	2955.392
35.92	2897.471
35.94	2861.42
35.96	2845.12
35.98	2819.573
36	2879.812
36.02	2882.648
36.04	2926.291
36.06	2862.15
36.08	2834.846
36.1	2725.122
36.12	2828.72
36.14	2726.912
36.16	2784.275
36.18	2725.412
36.2	2725.956
36.22	2765.573
36.24	2712.322
36.26	2821.694
36.28	2824.46
36.3	2773.854
36.32	2764.783
36.34	2807.989
36.36	2815.529
36.38	2888.366
36.4	2824.421
36.42	2705.779
36.44	2719.736
36.46	2701.006
36.48	2861.214
36.5	2790.758
36.52	2693.781
36.54	2732.292
36.56	2649.827
36.58	2796.226
36.6	2742.655
36.62	2711.005
36.64	2794.696
36.66	2724.839
36.68	2747.865
36.7	2814.931
36.72	2737.266
36.74	2691.023
36.76	2739.735
36.78	2707.074
36.8	2769.66
36.82	2750.526
36.84	2764.118
36.86	2757.453
36.88	2646.732
36.9	2687.704
36.92	2690.961
36.94	2729.714
36.96	2632.444
36.98	2675.832
37	2725.716
37.02	2728.12
37.04	2693.673
37.06	2731.487
37.08	2654.08
37.1	2693.212
37.12	2803.793
37.14	2650.729
37.16	2723.911
37.18	2718.788
37.2	2692.31
37.22	2794.946
37.24	2762.265
37.26	2839.417
37.28	2919.682
37.3	2909.286
37.32	2775.541
37.34	2957.731
37.36	2906.493
37.38	2936.992
37.4	3033.478
37.42	2928.388
37.44	2926.03
37.46	2933.243
37.48	2979.665
37.5	2937.389
37.52	3032.811
37.54	2993.838
37.56	2894.644
37.58	3054.343
37.6	2919.401
37.62	2952.084
37.64	2854.593
37.66	2899.671
37.68	2974.722
37.7	3082.278
37.72	2950.301
37.74	3011.137
37.76	3026.931
37.78	2962.512
37.8	3057.113
37.82	3033.579
37.84	3162.265
37.86	3074.315
37.88	3175.786
37.9	3234.294
37.92	3180.896
37.94	3192.494
37.96	3158.735
37.98	3153.225
38	3273.878
38.02	3297.427
38.04	3338.239
38.06	3379.555
38.08	3505.131
38.1	3401.31
38.12	3453.49
38.14	3571.752
38.16	3527.948
38.18	3578.215
38.2	3776.896
38.22	3848.091
38.24	3925.517
38.26	4080.007
38.28	4269.901
38.3	4209.058
38.32	4385.688
38.34	4666.251
38.36	4837.888
38.38	5333.646
38.4	5753.181
38.42	6452.152
38.44	7138.179
38.46	8118.482
38.48	9189.924
38.5	11173.83
38.52	14171.81
38.54	19537.69
38.56	28503.36
38.58	41243.98
38.6	54721.57
38.62	62892.81
38.64	60069.31
38.66	50602.71
38.68	42629.84
38.7	40220.22
38.72	37825.8
38.74	32994.26
38.76	24947.41
38.78	17216.4
38.8	12151.59
38.82	9103.1
38.84	7346.093
38.86	6377.964
38.88	5516.834
38.9	5130.351
38.92	4758.49
38.94	4667.446
38.96	4445.864
38.98	4188.558
39	4101.854
39.02	3990.271
39.04	3914.102
39.06	3796.024
39.08	3662.012
39.1	3621.59
39.12	3506.96
39.14	3396
39.16	3379.798
39.18	3423.011
39.2	3320.176
39.22	3331.079
39.24	3215.871
39.26	3093.777
39.28	3094.405
39.3	3069.3
39.32	3063.828
39.34	2970.716
39.36	3041.751
39.38	2912.25
39.4	2886.477
39.42	2860.186
39.44	2904.36
39.46	2812.385
39.48	2746.674
39.5	2776.129
39.52	2728.881
39.54	2783.261
39.56	2838.766
39.58	2778.498
39.6	2645.099
39.62	2694.442
39.64	2675.218
39.66	2615.685
39.68	2667.333
39.7	2703.07
39.72	2676.688
39.74	2679.382
39.76	2533.658
39.78	2598.294
39.8	2522.399
39.82	2642.51
39.84	2572.93
39.86	2518.127
39.88	2524.182
39.9	2540.184
39.92	2507.705
39.94	2595.253
39.96	2559.618
39.98	2488.364
40	2581.172
40.02	2487.905
40.04	2521.24
40.06	2488.537
40.08	2419.011
40.1	2574.382
40.12	2490.866
40.14	2477.858
40.16	2426.995
40.18	2425.516
40.2	2432.645
40.22	2509.406
40.24	2377.138
40.26	2424.754
40.28	2432.805
40.3	2432.768
40.32	2470.412
40.34	2463.423
40.36	2399.31
40.38	2463.754
40.4	2426.083
40.42	2447.221
40.44	2427.425
40.46	2341.096
40.48	2513.485
40.5	2446.915
40.52	2466.391
40.54	2423.728
40.56	2416.639
40.58	2407.827
40.6	2395.13
40.62	2445.199
40.64	2439.481
40.66	2404.913
40.68	2408.957
40.7	2408.461
40.72	2431.231
40.74	2469.368
40.76	2300.355
40.78	2480.711
40.8	2413.015
40.82	2300.61
40.84	2331.251
40.86	2454.315
40.88	2425.862
40.9	2308.88
40.92	2320.06
40.94	2319.524
40.96	2344.796
40.98	2352.864
41	2402.649
41.02	2345.458
41.04	2305.006
41.06	2268.334
41.08	2281.87
41.1	2323.668
41.12	2268.867
41.14	2267.295
41.16	2336.288
41.18	2391.15
41.2	2308.872
41.22	2237.462
41.24	2323.599
41.26	2335.01
41.28	2307.815
41.3	2301.441
41.32	2190.78
41.34	2370.383
41.36	2322.599
41.38	2249.879
41.4	2286.312
41.42	2203.146
41.44	2296.275
41.46	2308.673
41.48	2260.696
41.5	2239.347
41.52	2282.156
41.54	2279.802
41.56	2259.204
41.58	2259.096
41.6	2148.916
41.62	2228.447
41.64	2342.218
41.66	2306.284
41.68	2327.404
41.7	2208.746
41.72	2203.766
41.74	2272.204
41.76	2253.67
41.78	2250.352
41.8	2188.321
41.82	2269.025
41.84	2212.029
41.86	2178.42
41.88	2139.054
41.9	2141.132
41.92	2170.363
41.94	2297.959
41.96	2233.842
41.98	2221.836
42	2211.34
42.02	2223.003
42.04	2197.147
42.06	2226.88
42.08	2169.544
42.1	2145.598
42.12	2192.466
42.14	2146.926
42.16	2190.771
42.18	2183.26
42.2	2246.528
42.22	2215.066
42.24	2182.332
42.26	2224.779
42.28	2268.023
42.3	2234.059
42.32	2178.404
42.34	2237.68
42.36	2247.699
42.38	2170.857
42.4	2171.399
42.42	2153.316
42.44	2140.674
42.46	2208.972
42.48	2203.58
42.5	2117.299
42.52	2169.397
42.54	2048.511
42.56	2121.941
42.58	2201.229
42.6	2187.865
42.62	2158.168
42.64	2133.404
42.66	2086.578
42.68	2142.878
42.7	2178.516
42.72	2193.563
42.74	2164.838
42.76	2171.874
42.78	2118.701
42.8	2149.671
42.82	2071.249
42.84	2135.519
42.86	2095.913
42.88	2082.133
42.9	2139.183
42.92	2076.071
42.94	2099.651
42.96	2105.222
42.98	2117.864
43	2110.6
43.02	2109.403
43.04	2031.78
43.06	2080.05
43.08	2168.475
43.1	2052.243
43.12	2074.487
43.14	2043.443
43.16	2156.247
43.18	1951.487
43.2	2122.559
43.22	2046.484
43.24	2059.004
43.26	2013.76
43.28	2167.259
43.3	2084.525
43.32	2134.039
43.34	2061.039
43.36	2062.848
43.38	2061.114
43.4	2141.372
43.42	2040.195
43.44	2099.08
43.46	2011.766
43.48	2013.054
43.5	2028.786
43.52	2074.402
43.54	2098.985
43.56	2133.388
43.58	2083.504
43.6	2011.37
43.62	2055.239
43.64	2008.014
43.66	2042.458
43.68	2123.698
43.7	2073.836
43.72	2114.536
43.74	2034.373
43.76	2045.919
43.78	2049.29
43.8	2020.524
43.82	1966.231
43.84	2054.261
43.86	2054.585
43.88	2038.314
43.9	2050.955
43.92	2086.135
43.94	2085.808
43.96	1951.066
43.98	2016.111
44	1986.264
44.02	1907.916
44.04	2003.658
44.06	2066.896
44.08	1950.834
44.1	2045.28
44.12	2044.168
44.14	2091.175
44.16	1914.328
44.18	2020.302
44.2	2023.62
44.22	1985.607
44.24	2101.565
44.26	1961.559
44.28	2030.261
44.3	1993.107
44.32	2094.692
44.34	1969.359
44.36	1989.128
44.38	2040.4
44.4	2022.301
44.42	1978.521
44.44	1962.723
44.46	2036.928
44.48	1943.275
44.5	1929.455
44.52	2076.841
44.54	1969.349
44.56	1978.608
44.58	1908.871
44.6	2049.236
44.62	2071.788
44.64	1985.359
44.66	1963.954
44.68	1974.035
44.7	1980.157
44.72	1936.673
44.74	1979.438
44.76	2023.626
44.78	1940.916
44.8	1990.903
44.82	1928.758
44.84	1984.148
44.86	1940.908
44.88	2003.758
44.9	1935.666
44.92	2001.957
44.94	1982.087
44.96	1977.92
44.98	1954.632
45	1934.87
45.02	1938.945
45.04	1909.496
45.06	1921.807
45.08	1897.851
45.1	1942.012
45.12	1956.318
45.14	1936.1
45.16	1846.801
45.18	1861.422
45.2	1932.302
45.22	1967.072
45.24	1931.598
45.26	1982.888
45.28	1972.335
45.3	1923.107
45.32	1874.414
45.34	1888.628
45.36	1872.419
45.38	1866.023
45.4	2018.886
45.42	1909.329
45.44	1917.798
45.46	1885.598
45.48	1994.219
45.5	1907.774
45.52	1858.306
45.54	1855.321
45.56	1926.979
45.58	1816.682
45.6	1929.026
45.62	1900.036
45.64	1946.179
45.66	1887.861
45.68	1969.15
45.7	1965.848
45.72	1964.944
45.74	1933.523
45.76	1875.26
45.78	1821.757
45.8	1812.12
45.82	1863.422
45.84	1926.89
45.86	1939.112
45.88	1859.016
45.9	1878.607
45.92	1847.969
45.94	1937.418
45.96	1902.037
45.98	1873.565
46	1896.569
46.02	1877.777
46.04	1816.379
46.06	1850.2
46.08	1852.594
46.1	1883.246
46.12	1825.828
46.14	1887.217
46.16	1887.506
46.18	1857.58
46.2	1921.708
46.22	1879.527
46.24	2003.499
46.26	1865.084
46.28	1800.464
46.3	1889.797
46.32	1860.396
46.34	1917.086
46.36	1843.807
46.38	1850.251
46.4	1857.273
46.42	1820.809
46.44	1791.409
46.46	1837.373
46.48	1810.29
46.5	1772.61
46.52	1844.69
46.54	1825.016
46.56	1771.276
46.58	1828.457
46.6	1862.039
46.62	1812.389
46.64	1803.962
46.66	1829.03
46.68	1781.236
46.7	1861.066
46.72	1874.571
46.74	1865.078
46.76	1835.107
46.78	1788.93
46.8	1825.607
46.82	1847.996
46.84	1747.174
46.86	1891.427
46.88	1843.814
46.9	1730.618
46.92	1836.388
46.94	1853.23
46.96	1777.968
46.98	1793.38
47	1722.785
47.02	1809.045
47.04	1800.427
47.06	1728.217
47.08	1801.749
47.1	1830.906
47.12	1808.896
47.14	1801.558
47.16	1740.766
47.18	1797.404
47.2	1711.443
47.22	1782.574
47.24	1767.939
47.26	1743.839
47.28	1747.686
47.3	1786.357
47.32	1800.84
47.34	1791.175
47.36	1779.578
47.38	1840.24
47.4	1749.6
47.42	1795.573
47.44	1874.695
47.46	1748.753
47.48	1786.571
47.5	1743.311
47.52	1758.755
47.54	1742.57
47.56	1828.235
47.58	1797.711
47.6	1744.945
47.62	1832.457
47.64	1744.124
47.66	1770.641
47.68	1761.365
47.7	1766.127
47.72	1764.492
47.74	1783.004
47.76	1844.644
47.78	1771.423
47.8	1778.56
47.82	1717.595
47.84	1675.309
47.86	1716.714
47.88	1736.781
47.9	1797.797
47.92	1717.758
47.94	1775.277
47.96	1711.933
47.98	1709.083
48	1705.913
48.02	1726.601
48.04	1730.353
48.06	1707.233
48.08	1730.024
48.1	1768.542
48.12	1699.441
48.14	1723.042
48.16	1772.888
48.18	1778.438
48.2	1748.257
48.22	1734.653
48.24	1731.308
48.26	1746.863
48.28	1746.351
48.3	1695.609
48.32	1824.776
48.34	1770.107
48.36	1727.988
48.38	1675.81
48.4	1721.374
48.42	1780.084
48.44	1699.745
48.46	1710.099
48.48	1684.096
48.5	1747.255
48.52	1628.235
48.54	1737.703
48.56	1714.299
48.58	1680.467
48.6	1702.624
48.62	1751.434
48.64	1699.965
48.66	1687.732
48.68	1638.086
48.7	1695.787
48.72	1690.316
48.74	1589.258
48.76	1738.292
48.78	1807.456
48.8	1842.088
48.82	1734.294
48.84	1703.046
48.86	1727.409
48.88	1819.744
48.9	1746.144
48.92	1593.256
48.94	1661.907
48.96	1817.791
48.98	1690.105
49	1757.867
49.02	1752.699
49.04	1698.237
49.06	1681.793
49.08	1676.07
49.1	1706.015
49.12	1721.055
49.14	1716.786
49.16	1695.533
49.18	1715.863
49.2	1668.395
49.22	1635.186
49.24	1642.511
49.26	1682.929
49.28	1716.187
49.3	1750.155
49.32	1699.506
49.34	1713.759
49.36	1718.921
49.38	1710.292
49.4	1695.058
49.42	1663.736
49.44	1754.627
49.46	1703.907
49.48	1739.62
49.5	1633.272
49.52	1650.226
49.54	1686.087
49.56	1753.522
49.58	1691.487
49.6	1653.211
49.62	1772.673
49.64	1709.565
49.66	1705.818
49.68	1674.374
49.7	1634.677
49.72	1678.641
49.74	1755.16
49.76	1685.014
49.78	1754.024
49.8	1611.584
49.82	1609.602
49.84	1765.626
49.86	1758.028
49.88	1734.832
49.9	1717.413
49.92	1753.911
49.94	1690.647
49.96	1714.26
49.98	1705.272
50	1758.051
50.02	1836.715
50.04	1789.113
50.06	1730.425
50.08	1777.001
50.1	1742.781
50.12	1810.572
50.14	1830.867
50.16	1734.644
50.18	1831.357
50.2	1741.005
50.22	1779.636
50.24	1736.301
50.26	1766.711
50.28	1787.685
50.3	1793.257
50.32	1755.81
50.34	1770.793
50.36	1841.627
50.38	1774.853
50.4	1845.569
50.42	1816.888
50.44	1837.005
50.46	1809.018
50.48	1888.263
50.5	1783.002
50.52	1828.407
50.54	1802.05
50.56	1887.223
50.58	1945.436
50.6	1864.139
50.62	1884.292
50.64	1822.882
50.66	1850.645
50.68	1880.916
50.7	1827.383
50.72	1774.603
50.74	1864.21
50.76	1895.302
50.78	1855.385
50.8	1881.312
50.82	1830.891
50.84	1807.216
50.86	1891.247
50.88	1769.722
50.9	1852.447
50.92	1812.894
50.94	1777.667
50.96	1732.955
50.98	1723.11
51	1809.071
51.02	1746.207
51.04	1691.453
51.06	1710.454
51.08	1704.966
51.1	1786.604
51.12	1743.299
51.14	1762.534
51.16	1663.533
51.18	1751.077
51.2	1674.653
51.22	1679.472
51.24	1700.096
51.26	1689.944
51.28	1734.641
51.3	1684.559
51.32	1645.16
51.34	1661.234
51.36	1645.83
51.38	1715.969
51.4	1665.932
51.42	1589.466
51.44	1647.041
51.46	1594.769
51.48	1585.377
51.5	1596.103
51.52	1626.599
51.54	1636.507
51.56	1593.892
51.58	1612.366
51.6	1552.128
51.62	1628.445
51.64	1622.122
51.66	1648.34
51.68	1599.349
51.7	1530.936
51.72	1532.798
51.74	1594.02
51.76	1586.077
51.78	1604.295
51.8	1575.294
51.82	1620.192
51.84	1628.337
51.86	1595.344
51.88	1615.668
51.9	1677.419
51.92	1642.358
51.94	1593.905
51.96	1544.582
51.98	1578.851
52	1584.23
52.02	1553.632
52.04	1605.333
52.06	1644.776
52.08	1632.911
52.1	1600.263
52.12	1578.194
52.14	1636.029
52.16	1551.116
52.18	1608.146
52.2	1572.94
52.22	1592.728
52.24	1617.589
52.26	1571.205
52.28	1547.02
52.3	1558.624
52.32	1609.426
52.34	1578.025
52.36	1583.129
52.38	1528.546
52.4	1576.813
52.42	1546.685
52.44	1584.937
52.46	1591.207
52.48	1608.509
52.5	1580.878
52.52	1564.474
52.54	1608.016
52.56	1635.527
52.58	1592.006
52.6	1605.02
52.62	1612.085
52.64	1529.609
52.66	1594.075
52.68	1513.004
52.7	1540.906
52.72	1527.238
52.74	1557.634
52.76	1611.68
52.78	1525.043
52.8	1548.667
52.82	1498.231
52.84	1617.587
52.86	1556.592
52.88	1518.732
52.9	1581.216
52.92	1525.881
52.94	1587.656
52.96	1564.327
52.98	1541.908
53	1618.234
53.02	1526.267
53.04	1523.015
53.06	1579.725
53.08	1649.178
53.1	1537.818
53.12	1469.636
53.14	1535.868
53.16	1551.382
53.18	1547.073
53.2	1475.391
53.22	1551.82
53.24	1569.059
53.26	1556.7
53.28	1526.798
53.3	1615.438
53.32	1538.034
53.34	1575.055
53.36	1569.162
53.38	1558.298
53.4	1609.016
53.42	1506.405
53.44	1574.234
53.46	1579.561
53.48	1592.791
53.5	1605.143
53.52	1555.171
53.54	1505.26
53.56	1564.63
53.58	1579.657
53.6	1585.197
53.62	1550.308
53.64	1496.6
53.66	1571.852
53.68	1539.365
53.7	1564.886
53.72	1534.701
53.74	1479.246
53.76	1617.966
53.78	1577.317
53.8	1588.151
53.82	1603.577
53.84	1501.257
53.86	1553.918
53.88	1501.871
53.9	1599.274
53.92	1604.566
53.94	1535.224
53.96	1551.29
53.98	1480.232
54	1543.042
54.02	1626.229
54.04	1559.175
54.06	1531.682
54.08	1547.925
54.1	1598.684
54.12	1580.678
54.14	1529.869
54.16	1490.642
54.18	1632.544
54.2	1571.699
54.22	1507.836
54.24	1597.334
54.26	1525.468
54.28	1584.002
54.3	1546.913
54.32	1549.737
54.34	1576.238
54.36	1607.185
54.38	1532.872
54.4	1597.08
54.42	1551.309
54.44	1573.732
54.46	1596.74
54.48	1545.753
54.5	1560.518
54.52	1639.34
54.54	1582.764
54.56	1628.4
54.58	1632.504
54.6	1559.163
54.62	1656.637
54.64	1584.828
54.66	1596.15
54.68	1651.27
54.7	1576.042
54.72	1571.977
54.74	1564.107
54.76	1632.76
54.78	1693.03
54.8	1580.065
54.82	1695.763
54.84	1673.91
54.86	1649.449
54.88	1559.893
54.9	1622.765
54.92	1612.229
54.94	1689.432
54.96	1647.86
54.98	1621.125
55	1702.158
55.02	1734.834
55.04	1695.436
55.06	1642.745
55.08	1661.426
55.1	1699.207
55.12	1733.824
55.14	1623.977
55.16	1762.12
55.18	1749.014
55.2	1816.75
55.22	1754.491
55.24	1792.098
55.26	1758.265
55.28	1831.378
55.3	1859.465
55.32	1804.488
55.34	1828.2
55.36	1786.026
55.38	1852.863
55.4	1927.155
55.42	1947.885
55.44	1946.513
55.46	1935.663
55.48	2033.143
55.5	2034.487
